  Range (A) 
=============
1754.0 1770.0
1770.0 1786.0
1786.0 1802.0
1802.0 1818.0
1818.0 1835.0
1835.0 1852.0
1852.0 1869.0
1869.0 1887.0
1887.0 1905.0
1905.0 1923.0
1923.0 1942.0
1942.0 1961.0
1961.0 1980.0
1980.0 2000.0
2000.0 2020.0
2020.0 2041.0
2041.0 2062.0
2062.0 2083.0
2083.0 2105.0
2105.0 2128.0
2128.0 2151.0
2151.0 2174.0
2174.0 2200.0
2200.0 2222.0
2222.0 2247.0
2247.0 2273.0
2273.0 2299.0
2299.0 2326.0
2326.0 2353.0
2353.0 2381.0
2381.0 2410.0
2410.0 2439.0
2439.0 2469.0
2469.0 2500.0
2500.0 2532.0
2532.0 2564.0
2564.0 2597.0
2597.0 2632.0
2632.0 2667.0
2667.0 2703.0
2703.0 2740.0
2740.0 2778.0
2778.0 2817.0
2817.0 2857.0
2857.0 2899.0
2899.0 2941.0
2941.0 2985.0
2985.0 3030.0
3030.0 3077.0
3077.0 3125.0
3125.0 3175.0
3175.0 3225.0
3225.0 3275.0
3275.0 3325.0
3325.0 3375.0
3375.0 3425.0
3425.0 3450.0
3450.0 3550.0
3550.0 3650.0
3650.0 3750.0
3750.0 3850.0
3850.0 3950.0
3950.0 4050.0
4050.0 4150.0
4150.0 4250.0
4250.0 4350.0
4350.0 4450.0
4450.0 4550.0
4550.0 4650.0
4650.0 4750.0
4750.0 4850.0
4850.0 4950.0
4950.0 5050.0
5050.0 5150.0
5150.0 5250.0
5250.0 5350.0
5350.0 5450.0
5450.0 5550.0
5550.0 5650.0
5650.0 5750.0
5750.0 5850.0
5850.0 5950.0
5950.0 6050.0
6050.0 6150.0
6150.0 6250.0
6250.0 6350.0
6350.0 6450.0
6450.0 6550.0
6550.0 6650.0
6650.0 6750.0
6750.0 6850.0
6850.0 6950.0
6950.0 7050.0
7050.0 7150.0
7150.0 7250.0
7250.0 7350.0
7350.0 7450.0
7450.0 7550.0
7550.0 7650.0
7650.0 7750.0
7750.0 7850.0
7850.0 7950.0
7950.0 8050.0
8050.0 8150.0
8150.0 8250.0
8250.0 8350.0
8350.0 8450.0
8450.0 8550.0